PE IR                   SPECTRUM    ASCII       PEDS        1.60        
  -1
FR220609.ASC
22/05/09
15:40:35.00
22/05/09
15:40:35.00
Administrator
Primer cinza claro raspado na superficie da carenagem eixo de transmissao - IR/UATR 80 N - Vitor
550.000000
20









FRONTIER FT-IR/NIR,CPU32 MAIN 00.09.1072 09-JANUARY-2014 12:55:01
MIR TGS
MIR
OPTKBR
100262
0.200000

4.000000
FORTE
RAZ„O
ESPECTRO
MAGNITUDE
UNIVERSAL ATR
DUPLO

COMBINADO


0


#HDR
-1
-1
#GR
CM-1
%T
0.00002384185791015625
0.0
4000.000000
-1.000000
3451
8
97.484350
55.216829
#DATA
4000.000000	95.890821 
3999.000000	95.892588 
3998.000000	95.894688 
3997.000000	95.897978 
3996.000000	95.902374 
3995.000000	95.907525 
3994.000000	95.912292 
3993.000000	95.915397 
3992.000000	95.916143 
3991.000000	95.914757 
3990.000000	95.912208 
3989.000000	95.909655 
3988.000000	95.907639 
3987.000000	95.906307 
3986.000000	95.905902 
3985.000000	95.906927 
3984.000000	95.909715 
3983.000000	95.913559 
3982.000000	95.916945 
3981.000000	95.918578 
3980.000000	95.918547 
3979.000000	95.918137 
3978.000000	95.918553 
3977.000000	95.919948 
3976.000000	95.921669 
3975.000000	95.923264 
3974.000000	95.924754 
3973.000000	95.926160 
3972.000000	95.927153 
3971.000000	95.927388 
3970.000000	95.927107 
3969.000000	95.927116 
3968.000000	95.927943 
3967.000000	95.929339 
3966.000000	95.930490 
3965.000000	95.930803 
3964.000000	95.930253 
3963.000000	95.929451 
3962.000000	95.928917 
3961.000000	95.928554 
3960.000000	95.928414 
3959.000000	95.928564 
3958.000000	95.929114 
3957.000000	95.929773 
3956.000000	95.929287 
3955.000000	95.926482 
3954.000000	95.921159 
3953.000000	95.915023 
3952.000000	95.911493 
3951.000000	95.913566 
3950.000000	95.921827 
3949.000000	95.932808 
3948.000000	95.940738 
3947.000000	95.941986 
3946.000000	95.936997 
3945.000000	95.929802 
3944.000000	95.925042 
3943.000000	95.925256 
3942.000000	95.929321 
3941.000000	95.934029 
3940.000000	95.938462 
3939.000000	95.943382 
3938.000000	95.949315 
3937.000000	95.956225 
3936.000000	95.962561 
3935.000000	95.966956 
3934.000000	95.968582 
3933.000000	95.967002 
3932.000000	95.962388 
3931.000000	95.955503 
3930.000000	95.948846 
3929.000000	95.943913 
3928.000000	95.940035 
3927.000000	95.936536 
3926.000000	95.935244 
3925.000000	95.938513 
3924.000000	95.944861 
3923.000000	95.950606 
3922.000000	95.953934 
3921.000000	95.957140 
3920.000000	95.963331 
3919.000000	95.972046 
3918.000000	95.980005 
3917.000000	95.983311 
3916.000000	95.981322 
3915.000000	95.977147 
3914.000000	95.973370 
3913.000000	95.971988 
3912.000000	95.973083 
3911.000000	95.974822 
3910.000000	95.975310 
3909.000000	95.973728 
3908.000000	95.969986 
3907.000000	95.965704 
3906.000000	95.963992 
3905.000000	95.969508 
3904.000000	95.981627 
3903.000000	95.991159 
3902.000000	95.989726 
3901.000000	95.978795 
3900.000000	95.967199 
3899.000000	95.962133 
3898.000000	95.963727 
3897.000000	95.967571 
3896.000000	95.970997 
3895.000000	95.974158 
3894.000000	95.977231 
3893.000000	95.982449 
3892.000000	95.990231 
3891.000000	95.997873 
3890.000000	96.003524 
3889.000000	96.005290 
3888.000000	96.003472 
3887.000000	96.000858 
3886.000000	95.999699 
3885.000000	95.997656 
3884.000000	95.990382 
3883.000000	95.979034 
3882.000000	95.970509 
3881.000000	95.972218 
3880.000000	95.981828 
3879.000000	95.989168 
3878.000000	95.990792 
3877.000000	95.987254 
3876.000000	95.981977 
3875.000000	95.981925 
3874.000000	95.988653 
3873.000000	95.997179 
3872.000000	96.002283 
3871.000000	96.005877 
3870.000000	96.012655 
3869.000000	96.017961 
3868.000000	96.015772 
3867.000000	96.006699 
3866.000000	95.996992 
3865.000000	95.995740 
3864.000000	96.003429 
3863.000000	96.013143 
3862.000000	96.020310 
3861.000000	96.024675 
3860.000000	96.026979 
3859.000000	96.028985 
3858.000000	96.031342 
3857.000000	96.031629 
3856.000000	96.025997 
3855.000000	96.015300 
3854.000000	96.014641 
3853.000000	96.023617 
3852.000000	96.022392 
3851.000000	96.014986 
3850.000000	96.012344 
3849.000000	96.015720 
3848.000000	96.020821 
3847.000000	96.022988 
3846.000000	96.021472 
3845.000000	96.017650 
3844.000000	96.014189 
3843.000000	96.012626 
3842.000000	96.012285 
3841.000000	96.011786 
3840.000000	96.010677 
3839.000000	96.010958 
3838.000000	96.012678 
3837.000000	96.014475 
3836.000000	96.017451 
3835.000000	96.022380 
3834.000000	96.028328 
3833.000000	96.033713 
3832.000000	96.036671 
3831.000000	96.036841 
3830.000000	96.034994 
3829.000000	96.032469 
3828.000000	96.031485 
3827.000000	96.034651 
3826.000000	96.041916 
3825.000000	96.048916 
3824.000000	96.049718 
3823.000000	96.041504 
3822.000000	96.032746 
3821.000000	96.032292 
3820.000000	96.034962 
3819.000000	96.035613 
3818.000000	96.033311 
3817.000000	96.032389 
3816.000000	96.036372 
3815.000000	96.040924 
3814.000000	96.042141 
3813.000000	96.042174 
3812.000000	96.044788 
3811.000000	96.051360 
3810.000000	96.058603 
3809.000000	96.062931 
3808.000000	96.064687 
3807.000000	96.067055 
3806.000000	96.068673 
3805.000000	96.064426 
3804.000000	96.053188 
3803.000000	96.040124 
3802.000000	96.035137 
3801.000000	96.037696 
3800.000000	96.039071 
3799.000000	96.038268 
3798.000000	96.039088 
3797.000000	96.043494 
3796.000000	96.050358 
3795.000000	96.054695 
3794.000000	96.055468 
3793.000000	96.055519 
3792.000000	96.057913 
3791.000000	96.062583 
3790.000000	96.066416 
3789.000000	96.067070 
3788.000000	96.064669 
3787.000000	96.061503 
3786.000000	96.060671 
3785.000000	96.063431 
3784.000000	96.067806 
3783.000000	96.070601 
3782.000000	96.069462 
3781.000000	96.066402 
3780.000000	96.067464 
3779.000000	96.074566 
3778.000000	96.083088 
3777.000000	96.087861 
3776.000000	96.088672 
3775.000000	96.088191 
3774.000000	96.087740 
3773.000000	96.087043 
3772.000000	96.086154 
3771.000000	96.088337 
3770.000000	96.094532 
3769.000000	96.099845 
3768.000000	96.098751 
3767.000000	96.093448 
3766.000000	96.089175 
3765.000000	96.088246 
3764.000000	96.089555 
3763.000000	96.090276 
3762.000000	96.089936 
3761.000000	96.091197 
3760.000000	96.096370 
3759.000000	96.103955 
3758.000000	96.110269 
3757.000000	96.116038 
3756.000000	96.121733 
3755.000000	96.125920 
3754.000000	96.128216 
3753.000000	96.132960 
3752.000000	96.143690 
3751.000000	96.154412 
3750.000000	96.152557 
3749.000000	96.140598 
3748.000000	96.130602 
3747.000000	96.124264 
3746.000000	96.116854 
3745.000000	96.107496 
3744.000000	96.095031 
3743.000000	96.081394 
3742.000000	96.073713 
3741.000000	96.074468 
3740.000000	96.080301 
3739.000000	96.086164 
3738.000000	96.085746 
3737.000000	96.080039 
3736.000000	96.079553 
3735.000000	96.091188 
3734.000000	96.111111 
3733.000000	96.128179 
3732.000000	96.132154 
3731.000000	96.122756 
3730.000000	96.107075 
3729.000000	96.090305 
3728.000000	96.075144 
3727.000000	96.064336 
3726.000000	96.059556 
3725.000000	96.059286 
3724.000000	96.061864 
3723.000000	96.067276 
3722.000000	96.074500 
3721.000000	96.080379 
3720.000000	96.083811 
3719.000000	96.087106 
3718.000000	96.092058 
3717.000000	96.097288 
3716.000000	96.099034 
3715.000000	96.094305 
3714.000000	96.080558 
3713.000000	96.056419 
3712.000000	96.023195 
3711.000000	95.986080 
3710.000000	95.950272 
3709.000000	95.916439 
3708.000000	95.880569 
3707.000000	95.838961 
3706.000000	95.791049 
3705.000000	95.736515 
3704.000000	95.675807 
3703.000000	95.611563 
3702.000000	95.545541 
3701.000000	95.477450 
3700.000000	95.407239 
3699.000000	95.337637 
3698.000000	95.269275 
3697.000000	95.200201 
3696.000000	95.127309 
3695.000000	95.047940 
3694.000000	94.960145 
3693.000000	94.863646 
3692.000000	94.762380 
3691.000000	94.663449 
3690.000000	94.570584 
3689.000000	94.477662 
3688.000000	94.380950 
3687.000000	94.291644 
3686.000000	94.220467 
3685.000000	94.165525 
3684.000000	94.119908 
3683.000000	94.074299 
3682.000000	94.012299 
3681.000000	93.912687 
3680.000000	93.763880 
3679.000000	93.575919 
3678.000000	93.381987 
3677.000000	93.239081 
3676.000000	93.220344 
3675.000000	93.343742 
3674.000000	93.537668 
3673.000000	93.728176 
3672.000000	93.896515 
3671.000000	94.049164 
3670.000000	94.184223 
3669.000000	94.285221 
3668.000000	94.352453 
3667.000000	94.404524 
3666.000000	94.453202 
3665.000000	94.499368 
3664.000000	94.539770 
3663.000000	94.572055 
3662.000000	94.597633 
3661.000000	94.621894 
3660.000000	94.649773 
3659.000000	94.680859 
3658.000000	94.710643 
3657.000000	94.734763 
3656.000000	94.752202 
3655.000000	94.765839 
3654.000000	94.780277 
3653.000000	94.795287 
3652.000000	94.807098 
3651.000000	94.813294 
3650.000000	94.814036 
3649.000000	94.804986 
3648.000000	94.787056 
3647.000000	94.770459 
3646.000000	94.764157 
3645.000000	94.769521 
3644.000000	94.782745 
3643.000000	94.798859 
3642.000000	94.813150 
3641.000000	94.823613 
3640.000000	94.830487 
3639.000000	94.835909 
3638.000000	94.842147 
3637.000000	94.849602 
3636.000000	94.857091 
3635.000000	94.863511 
3634.000000	94.870533 
3633.000000	94.880203 
3632.000000	94.891225 
3631.000000	94.897913 
3630.000000	94.898820 
3629.000000	94.896823 
3628.000000	94.891725 
3627.000000	94.888471 
3626.000000	94.891773 
3625.000000	94.900617 
3624.000000	94.911590 
3623.000000	94.923656 
3622.000000	94.935960 
3621.000000	94.946785 
3620.000000	94.952213 
3619.000000	94.947452 
3618.000000	94.931673 
3617.000000	94.913847 
3616.000000	94.904737 
3615.000000	94.906956 
3614.000000	94.915802 
3613.000000	94.923365 
3612.000000	94.923920 
3611.000000	94.916976 
3610.000000	94.903030 
3609.000000	94.883349 
3608.000000	94.862171 
3607.000000	94.844764 
3606.000000	94.832786 
3605.000000	94.823260 
3604.000000	94.812432 
3603.000000	94.799866 
3602.000000	94.788086 
3601.000000	94.779578 
3600.000000	94.774361 
3599.000000	94.770042 
3598.000000	94.763181 
3597.000000	94.751416 
3596.000000	94.736416 
3595.000000	94.722880 
3594.000000	94.715235 
3593.000000	94.714237 
3592.000000	94.717579 
3591.000000	94.721402 
3590.000000	94.721867 
3589.000000	94.716389 
3588.000000	94.705229 
3587.000000	94.688519 
3586.000000	94.669314 
3585.000000	94.655255 
3584.000000	94.650079 
3583.000000	94.651689 
3582.000000	94.655129 
3581.000000	94.655437 
3580.000000	94.651018 
3579.000000	94.643453 
3578.000000	94.634921 
3577.000000	94.626570 
3576.000000	94.619036 
3575.000000	94.612877 
3574.000000	94.608112 
3573.000000	94.604712 
3572.000000	94.602989 
3571.000000	94.602512 
3570.000000	94.600479 
3569.000000	94.593757 
3568.000000	94.581136 
3567.000000	94.562020 
3566.000000	94.538135 
3565.000000	94.517566 
3564.000000	94.507216 
3563.000000	94.506372 
3562.000000	94.510380 
3561.000000	94.515281 
3560.000000	94.518662 
3559.000000	94.519945 
3558.000000	94.519122 
3557.000000	94.516601 
3556.000000	94.513512 
3555.000000	94.511114 
3554.000000	94.509524 
3553.000000	94.508480 
3552.000000	94.508262 
3551.000000	94.509561 
3550.000000	94.512545 
3549.000000	94.516034 
3548.000000	94.518167 
3547.000000	94.517626 
3546.000000	94.513324 
3545.000000	94.505319 
3544.000000	94.496328 
3543.000000	94.489139 
3542.000000	94.484409 
3541.000000	94.481638 
3540.000000	94.480216 
3539.000000	94.480130 
3538.000000	94.480845 
3537.000000	94.481066 
3536.000000	94.480017 
3535.000000	94.478184 
3534.000000	94.476764 
3533.000000	94.476055 
3532.000000	94.475242 
3531.000000	94.473332 
3530.000000	94.470614 
3529.000000	94.468149 
3528.000000	94.466667 
3527.000000	94.465537 
3526.000000	94.463597 
3525.000000	94.460273 
3524.000000	94.455880 
3523.000000	94.450837 
3522.000000	94.445159 
3521.000000	94.438986 
3520.000000	94.432738 
3519.000000	94.427129 
3518.000000	94.422958 
3517.000000	94.420426 
3516.000000	94.419142 
3515.000000	94.418491 
3514.000000	94.418181 
3513.000000	94.418149 
3512.000000	94.418167 
3511.000000	94.417347 
3510.000000	94.414551 
3509.000000	94.409113 
3508.000000	94.402034 
3507.000000	94.395533 
3506.000000	94.391252 
3505.000000	94.389846 
3504.000000	94.390696 
3503.000000	94.391115 
3502.000000	94.388450 
3501.000000	94.382910 
3500.000000	94.377134 
3499.000000	94.373556 
3498.000000	94.372295 
3497.000000	94.371311 
3496.000000	94.368575 
3495.000000	94.363908 
3494.000000	94.359034 
3493.000000	94.355668 
3492.000000	94.353676 
3491.000000	94.351568 
3490.000000	94.348386 
3489.000000	94.344380 
3488.000000	94.340057 
3487.000000	94.335223 
3486.000000	94.329560 
3485.000000	94.323946 
3484.000000	94.319931 
3483.000000	94.317640 
3482.000000	94.315262 
3481.000000	94.310803 
3480.000000	94.304333 
3479.000000	94.297555 
3478.000000	94.291558 
3477.000000	94.286192 
3476.000000	94.281214 
3475.000000	94.276717 
3474.000000	94.272698 
3473.000000	94.269069 
3472.000000	94.265734 
3471.000000	94.262274 
3470.000000	94.257772 
3469.000000	94.251360 
3468.000000	94.242964 
3467.000000	94.233190 
3466.000000	94.222430 
3465.000000	94.211081 
3464.000000	94.200386 
3463.000000	94.192041 
3462.000000	94.186648 
3461.000000	94.182879 
3460.000000	94.178477 
3459.000000	94.171774 
3458.000000	94.162372 
3457.000000	94.151271 
3456.000000	94.140231 
3455.000000	94.130430 
3454.000000	94.121859 
3453.000000	94.113879 
3452.000000	94.106263 
3451.000000	94.098638 
3450.000000	94.090239 
3449.000000	94.080984 
3448.000000	94.071889 
3447.000000	94.063332 
3446.000000	94.054101 
3445.000000	94.043319 
3444.000000	94.032219 
3443.000000	94.022747 
3442.000000	94.014889 
3441.000000	94.007090 
3440.000000	93.998763 
3439.000000	93.990829 
3438.000000	93.984083 
3437.000000	93.978348 
3436.000000	93.972819 
3435.000000	93.966299 
3434.000000	93.957631 
3433.000000	93.946686 
3432.000000	93.935146 
3431.000000	93.924874 
3430.000000	93.916289 
3429.000000	93.908870 
3428.000000	93.902372 
3427.000000	93.896396 
3426.000000	93.889421 
3425.000000	93.879841 
3424.000000	93.867761 
3423.000000	93.855092 
3422.000000	93.844116 
3421.000000	93.836393 
3420.000000	93.832140 
3419.000000	93.829641 
3418.000000	93.826056 
3417.000000	93.819661 
3416.000000	93.811266 
3415.000000	93.803178 
3414.000000	93.797291 
3413.000000	93.794297 
3412.000000	93.793597 
3411.000000	93.793299 
3410.000000	93.791263 
3409.000000	93.787028 
3408.000000	93.781968 
3407.000000	93.777237 
3406.000000	93.772608 
3405.000000	93.767889 
3404.000000	93.763810 
3403.000000	93.760572 
3402.000000	93.756872 
3401.000000	93.751442 
3400.000000	93.744655 
3399.000000	93.737493 
3398.000000	93.730343 
3397.000000	93.723920 
3396.000000	93.720093 
3395.000000	93.719793 
3394.000000	93.720742 
3393.000000	93.719360 
3392.000000	93.714828 
3391.000000	93.709564 
3390.000000	93.705818 
3389.000000	93.703606 
3388.000000	93.701853 
3387.000000	93.699975 
3386.000000	93.697797 
3385.000000	93.695330 
3384.000000	93.693231 
3383.000000	93.692422 
3382.000000	93.692854 
3381.000000	93.693281 
3380.000000	93.692755 
3379.000000	93.691491 
3378.000000	93.690245 
3377.000000	93.689656 
3376.000000	93.690466 
3375.000000	93.693322 
3374.000000	93.697726 
3373.000000	93.702045 
3372.000000	93.705242 
3371.000000	93.708080 
3370.000000	93.711931 
3369.000000	93.716863 
3368.000000	93.721439 
3367.000000	93.724378 
3366.000000	93.726120 
3365.000000	93.728847 
3364.000000	93.734810 
3363.000000	93.744196 
3362.000000	93.754490 
3361.000000	93.762309 
3360.000000	93.766015 
3359.000000	93.766685 
3358.000000	93.767118 
3357.000000	93.770111 
3356.000000	93.776789 
3355.000000	93.785727 
3354.000000	93.794173 
3353.000000	93.800920 
3352.000000	93.807545 
3351.000000	93.816240 
3350.000000	93.827014 
3349.000000	93.837864 
3348.000000	93.846919 
3347.000000	93.853660 
3346.000000	93.858734 
3345.000000	93.863703 
3344.000000	93.870298 
3343.000000	93.878532 
3342.000000	93.886303 
3341.000000	93.892104 
3340.000000	93.897474 
3339.000000	93.905053 
3338.000000	93.914625 
3337.000000	93.923171 
3336.000000	93.928893 
3335.000000	93.933254 
3334.000000	93.938695 
3333.000000	93.946152 
3332.000000	93.955146 
3331.000000	93.964544 
3330.000000	93.972742 
3329.000000	93.978788 
3328.000000	93.983948 
3327.000000	93.990724 
3326.000000	93.999593 
3325.000000	94.008140 
3324.000000	94.014423 
3323.000000	94.019625 
3322.000000	94.026201 
3321.000000	94.034517 
3320.000000	94.042858 
3319.000000	94.050065 
3318.000000	94.056714 
3317.000000	94.063813 
3316.000000	94.071617 
3315.000000	94.079848 
3314.000000	94.088315 
3313.000000	94.096885 
3312.000000	94.105248 
3311.000000	94.113082 
3310.000000	94.120425 
3309.000000	94.127647 
3308.000000	94.134894 
3307.000000	94.141634 
3306.000000	94.147094 
3305.000000	94.151233 
3304.000000	94.154764 
3303.000000	94.158040 
3302.000000	94.160648 
3301.000000	94.162769 
3300.000000	94.166353 
3299.000000	94.173886 
3298.000000	94.186020 
3297.000000	94.200721 
3296.000000	94.214589 
3295.000000	94.224624 
3294.000000	94.229624 
3293.000000	94.231072 
3292.000000	94.232485 
3291.000000	94.236840 
3290.000000	94.244385 
3289.000000	94.253093 
3288.000000	94.260666 
3287.000000	94.265651 
3286.000000	94.267896 
3285.000000	94.269311 
3284.000000	94.273382 
3283.000000	94.282192 
3282.000000	94.293945 
3281.000000	94.304909 
3280.000000	94.313495 
3279.000000	94.321033 
3278.000000	94.328819 
3277.000000	94.336349 
3276.000000	94.342856 
3275.000000	94.348696 
3274.000000	94.354350 
3273.000000	94.359484 
3272.000000	94.363990 
3271.000000	94.368883 
3270.000000	94.375261 
3269.000000	94.383057 
3268.000000	94.391543 
3267.000000	94.400300 
3266.000000	94.408941 
3265.000000	94.416452 
3264.000000	94.421857 
3263.000000	94.425475 
3262.000000	94.428831 
3261.000000	94.433456 
3260.000000	94.439886 
3259.000000	94.447660 
3258.000000	94.455770 
3257.000000	94.463379 
3256.000000	94.470448 
3255.000000	94.477702 
3254.000000	94.485914 
3253.000000	94.495233 
3252.000000	94.505032 
3251.000000	94.513948 
3250.000000	94.520577 
3249.000000	94.524729 
3248.000000	94.527989 
3247.000000	94.532323 
3246.000000	94.538005 
3245.000000	94.543540 
3244.000000	94.547735 
3243.000000	94.551117 
3242.000000	94.555027 
3241.000000	94.560186 
3240.000000	94.566617 
3239.000000	94.574294 
3238.000000	94.583107 
3237.000000	94.592566 
3236.000000	94.602046 
3235.000000	94.611287 
3234.000000	94.620314 
3233.000000	94.628926 
3232.000000	94.636572 
3231.000000	94.642652 
3230.000000	94.647072 
3229.000000	94.650498 
3228.000000	94.654029 
3227.000000	94.658714 
3226.000000	94.665489 
3225.000000	94.675004 
3224.000000	94.686549 
3223.000000	94.697154 
3222.000000	94.703338 
3221.000000	94.704872 
3220.000000	94.705868 
3219.000000	94.710975 
3218.000000	94.720991 
3217.000000	94.733309 
3216.000000	94.745404 
3215.000000	94.755997 
3214.000000	94.763578 
3213.000000	94.766658 
3212.000000	94.766206 
3211.000000	94.765838 
3210.000000	94.768581 
3209.000000	94.774480 
3208.000000	94.781694 
3207.000000	94.788605 
3206.000000	94.794309 
3205.000000	94.798548 
3204.000000	94.802141 
3203.000000	94.806589 
3202.000000	94.812398 
3201.000000	94.818698 
3200.000000	94.824922 
3199.000000	94.831803 
3198.000000	94.839759 
3197.000000	94.847553 
3196.000000	94.853818 
3195.000000	94.859312 
3194.000000	94.866251 
3193.000000	94.875503 
3192.000000	94.885454 
3191.000000	94.893841 
3190.000000	94.900273 
3189.000000	94.906629 
3188.000000	94.915280 
3187.000000	94.927013 
3186.000000	94.940460 
3185.000000	94.953314 
3184.000000	94.963632 
3183.000000	94.970307 
3182.000000	94.973173 
3181.000000	94.973560 
3180.000000	94.974073 
3179.000000	94.976728 
3178.000000	94.981347 
3177.000000	94.986477 
3176.000000	94.991335 
3175.000000	94.996028 
3174.000000	95.000543 
3173.000000	95.004918 
3172.000000	95.010245 
3171.000000	95.018018 
3170.000000	95.028135 
3169.000000	95.038420 
3168.000000	95.046441 
3167.000000	95.051165 
3166.000000	95.053134 
3165.000000	95.054312 
3164.000000	95.057638 
3163.000000	95.065338 
3162.000000	95.076887 
3161.000000	95.089175 
3160.000000	95.098972 
3159.000000	95.105128 
3158.000000	95.108909 
3157.000000	95.112912 
3156.000000	95.119132 
