PE IR                   SPECTRUM    ASCII       PEDS        1.60        
  -1
FR220768.ASC
22/05/31
15:13:06.00
22/05/31
15:13:06.00
Administrator
Material branco  removido com auxilio de um estilete na superficie da Amostra denominada A 2 - Porta de passageiros - sem nenhum tratamento - IR/UATR 80N - Vitor
550.000000
20









FRONTIER FT-IR/NIR,CPU32 MAIN 00.09.1072 09-JANUARY-2014 12:55:01
MIR TGS
MIR
OPTKBR
100262
0.200000

4.000000
FORTE
RAZ„O
ESPECTRO
MAGNITUDE
UNIVERSAL ATR
DUPLO

COMBINADO


0


#HDR
-1
-1
#GR
CM-1
%T
0.00002384185791015625
0.0
4000.000000
-1.000000
3451
8
98.190944
17.763881
#DATA
4000.000000	95.650358 
3999.000000	95.652366 
3998.000000	95.655309 
3997.000000	95.658674 
3996.000000	95.662345 
3995.000000	95.667001 
3994.000000	95.672744 
3993.000000	95.678504 
3992.000000	95.682908 
3991.000000	95.684726 
3990.000000	95.683698 
3989.000000	95.681304 
3988.000000	95.679530 
3987.000000	95.679978 
3986.000000	95.682436 
3985.000000	95.684906 
3984.000000	95.685480 
3983.000000	95.683535 
3982.000000	95.680881 
3981.000000	95.680244 
3980.000000	95.683308 
3979.000000	95.689822 
3978.000000	95.697734 
3977.000000	95.704308 
3976.000000	95.707514 
3975.000000	95.707266 
3974.000000	95.705398 
3973.000000	95.704277 
3972.000000	95.705085 
3971.000000	95.707435 
3970.000000	95.709918 
3969.000000	95.711594 
3968.000000	95.712772 
3967.000000	95.714712 
3966.000000	95.718910 
3965.000000	95.726151 
3964.000000	95.735066 
3963.000000	95.743128 
3962.000000	95.747660 
3961.000000	95.747399 
3960.000000	95.744481 
3959.000000	95.741653 
3958.000000	95.740045 
3957.000000	95.738525 
3956.000000	95.734619 
3955.000000	95.727693 
3954.000000	95.719586 
3953.000000	95.714163 
3952.000000	95.716385 
3951.000000	95.728917 
3950.000000	95.750042 
3949.000000	95.772173 
3948.000000	95.785644 
3947.000000	95.785434 
3946.000000	95.771958 
3945.000000	95.751215 
3944.000000	95.732174 
3943.000000	95.723054 
3942.000000	95.726021 
3941.000000	95.735569 
3940.000000	95.745599 
3939.000000	95.752847 
3938.000000	95.758170 
3937.000000	95.765228 
3936.000000	95.774430 
3935.000000	95.785024 
3934.000000	95.796506 
3933.000000	95.806461 
3932.000000	95.809527 
3931.000000	95.800326 
3930.000000	95.782064 
3929.000000	95.761807 
3928.000000	95.743230 
3927.000000	95.728893 
3926.000000	95.725260 
3925.000000	95.735943 
3924.000000	95.753888 
3923.000000	95.768293 
3922.000000	95.774271 
3921.000000	95.778419 
3920.000000	95.789450 
3919.000000	95.807484 
3918.000000	95.824792 
3917.000000	95.830935 
3916.000000	95.824471 
3915.000000	95.812314 
3914.000000	95.799206 
3913.000000	95.790413 
3912.000000	95.788386 
3911.000000	95.791676 
3910.000000	95.795035 
3909.000000	95.794284 
3908.000000	95.790014 
3907.000000	95.788991 
3906.000000	95.799837 
3905.000000	95.829056 
3904.000000	95.868635 
3903.000000	95.895856 
3902.000000	95.892810 
3901.000000	95.862847 
3900.000000	95.827248 
3899.000000	95.807642 
3898.000000	95.809948 
3897.000000	95.823013 
3896.000000	95.835695 
3895.000000	95.846422 
3894.000000	95.854209 
3893.000000	95.860060 
3892.000000	95.861754 
3891.000000	95.863317 
3890.000000	95.872217 
3889.000000	95.879720 
3888.000000	95.877915 
3887.000000	95.872000 
3886.000000	95.873625 
3885.000000	95.881530 
3884.000000	95.875811 
3883.000000	95.844077 
3882.000000	95.796933 
3881.000000	95.763661 
3880.000000	95.766447 
3879.000000	95.796983 
3878.000000	95.828163 
3877.000000	95.834883 
3876.000000	95.819991 
3875.000000	95.810416 
3874.000000	95.823494 
3873.000000	95.852419 
3872.000000	95.877592 
3871.000000	95.891984 
3870.000000	95.905987 
3869.000000	95.923703 
3868.000000	95.937806 
3867.000000	95.939369 
3866.000000	95.933980 
3865.000000	95.937579 
3864.000000	95.944980 
3863.000000	95.942788 
3862.000000	95.934047 
3861.000000	95.930967 
3860.000000	95.935272 
3859.000000	95.943132 
3858.000000	95.950984 
3857.000000	95.956352 
3856.000000	95.956225 
3855.000000	95.949402 
3854.000000	95.952470 
3853.000000	95.971674 
3852.000000	95.976360 
3851.000000	95.965051 
3850.000000	95.951339 
3849.000000	95.947190 
3848.000000	95.950489 
3847.000000	95.952403 
3846.000000	95.947186 
3845.000000	95.935089 
3844.000000	95.922920 
3843.000000	95.915759 
3842.000000	95.913197 
3841.000000	95.912872 
3840.000000	95.909454 
3839.000000	95.902519 
3838.000000	95.895578 
3837.000000	95.893585 
3836.000000	95.898748 
3835.000000	95.904890 
3834.000000	95.909024 
3833.000000	95.915231 
3832.000000	95.926931 
3831.000000	95.942680 
3830.000000	95.954209 
3829.000000	95.954177 
3828.000000	95.945387 
3827.000000	95.941841 
3826.000000	95.953786 
3825.000000	95.974452 
3824.000000	95.985978 
3823.000000	95.977257 
3822.000000	95.963951 
3821.000000	95.967797 
3820.000000	95.981034 
3819.000000	95.984028 
3818.000000	95.966016 
3817.000000	95.942462 
3816.000000	95.936300 
3815.000000	95.948575 
3814.000000	95.962361 
3813.000000	95.967389 
3812.000000	95.970508 
3811.000000	95.983250 
3810.000000	96.003043 
3809.000000	96.019082 
3808.000000	96.025412 
3807.000000	96.029401 
3806.000000	96.032967 
3805.000000	96.024072 
3804.000000	95.996765 
3803.000000	95.964167 
3802.000000	95.949353 
3801.000000	95.954667 
3800.000000	95.962457 
3799.000000	95.961553 
3798.000000	95.953774 
3797.000000	95.951084 
3796.000000	95.961126 
3795.000000	95.973906 
3794.000000	95.979113 
3793.000000	95.975373 
3792.000000	95.970982 
3791.000000	95.971836 
3790.000000	95.976355 
3789.000000	95.981682 
3788.000000	95.985497 
3787.000000	95.986733 
3786.000000	95.986028 
3785.000000	95.984455 
3784.000000	95.981838 
3783.000000	95.977165 
3782.000000	95.966667 
3781.000000	95.953505 
3780.000000	95.948935 
3779.000000	95.959038 
3778.000000	95.977528 
3777.000000	95.992721 
3776.000000	96.000603 
3775.000000	96.006726 
3774.000000	96.016718 
3773.000000	96.029318 
3772.000000	96.037758 
3771.000000	96.042197 
3770.000000	96.045691 
3769.000000	96.047351 
3768.000000	96.041093 
3767.000000	96.030528 
3766.000000	96.027008 
3765.000000	96.036640 
3764.000000	96.051441 
3763.000000	96.056281 
3762.000000	96.047166 
3761.000000	96.035657 
3760.000000	96.033063 
3759.000000	96.038241 
3758.000000	96.044149 
3757.000000	96.056236 
3756.000000	96.076749 
3755.000000	96.102297 
3754.000000	96.133426 
3753.000000	96.183832 
3752.000000	96.257680 
3751.000000	96.325545 
3750.000000	96.350424 
3749.000000	96.338095 
3748.000000	96.308133 
3747.000000	96.259533 
3746.000000	96.193352 
3745.000000	96.134667 
3744.000000	96.121516 
3743.000000	96.147622 
3742.000000	96.174753 
3741.000000	96.190435 
3740.000000	96.204021 
3739.000000	96.217361 
3738.000000	96.217251 
3737.000000	96.198637 
3736.000000	96.174528 
3735.000000	96.153090 
3734.000000	96.145030 
3733.000000	96.161848 
3732.000000	96.191430 
3731.000000	96.214278 
3730.000000	96.222174 
3729.000000	96.218424 
3728.000000	96.213359 
3727.000000	96.213587 
3726.000000	96.215322 
3725.000000	96.205263 
3724.000000	96.178814 
3723.000000	96.146185 
3722.000000	96.121351 
3721.000000	96.109454 
3720.000000	96.106161 
3719.000000	96.109391 
3718.000000	96.121572 
3717.000000	96.142850 
3716.000000	96.165330 
3715.000000	96.180736 
3714.000000	96.188878 
3713.000000	96.196391 
3712.000000	96.199170 
3711.000000	96.184335 
3710.000000	96.156428 
3709.000000	96.138229 
3708.000000	96.136979 
3707.000000	96.143918 
3706.000000	96.151136 
3705.000000	96.150200 
3704.000000	96.135203 
3703.000000	96.111181 
3702.000000	96.091521 
3701.000000	96.086921 
3700.000000	96.094541 
3699.000000	96.106447 
3698.000000	96.118382 
3697.000000	96.130961 
3696.000000	96.142212 
3695.000000	96.146457 
3694.000000	96.139022 
3693.000000	96.119354 
3692.000000	96.093012 
3691.000000	96.070762 
3690.000000	96.061053 
3689.000000	96.058678 
3688.000000	96.054288 
3687.000000	96.042074 
3686.000000	96.014535 
3685.000000	95.963993 
3684.000000	95.876767 
3683.000000	95.701362 
3682.000000	95.303614 
3681.000000	94.479072 
3680.000000	93.066991 
3679.000000	91.077859 
3678.000000	88.735551 
3677.000000	86.528913 
3676.000000	85.303882 
3675.000000	85.736243 
3674.000000	87.379318 
3673.000000	89.280292 
3672.000000	90.998864 
3671.000000	92.481322 
3670.000000	93.657839 
3669.000000	94.411347 
3668.000000	94.793021 
3667.000000	94.960224 
3666.000000	94.986604 
3665.000000	94.846569 
3664.000000	94.491959 
3663.000000	93.949573 
3662.000000	93.383752 
3661.000000	93.037336 
3660.000000	93.077715 
3659.000000	93.483177 
3658.000000	94.082483 
3657.000000	94.660002 
3656.000000	95.063428 
3655.000000	95.269329 
3654.000000	95.344867 
3653.000000	95.361287 
3652.000000	95.370064 
3651.000000	95.407599 
3650.000000	95.471947 
3649.000000	95.494673 
3648.000000	95.445635 
3647.000000	95.382483 
3646.000000	95.351289 
3645.000000	95.350203 
3644.000000	95.364414 
3643.000000	95.385969 
3642.000000	95.407236 
3641.000000	95.420764 
3640.000000	95.423383 
3639.000000	95.420204 
3638.000000	95.418603 
3637.000000	95.419901 
3636.000000	95.421128 
3635.000000	95.422850 
3634.000000	95.433094 
3633.000000	95.456421 
3632.000000	95.486667 
3631.000000	95.510584 
3630.000000	95.523442 
3629.000000	95.524169 
3628.000000	95.509401 
3627.000000	95.489328 
3626.000000	95.468052 
3625.000000	95.450238 
3624.000000	95.441531 
3623.000000	95.439321 
3622.000000	95.431861 
3621.000000	95.410753 
3620.000000	95.379897 
3619.000000	95.353472 
3618.000000	95.342481 
3617.000000	95.347871 
3616.000000	95.363991 
3615.000000	95.383649 
3614.000000	95.402483 
3613.000000	95.419538 
3612.000000	95.436370 
3611.000000	95.450548 
3610.000000	95.451040 
3609.000000	95.428360 
3608.000000	95.385026 
3607.000000	95.338722 
3606.000000	95.309452 
3605.000000	95.301661 
3604.000000	95.305972 
3603.000000	95.311132 
3602.000000	95.311506 
3601.000000	95.306190 
3600.000000	95.297102 
3599.000000	95.286406 
3598.000000	95.274870 
3597.000000	95.261294 
3596.000000	95.248020 
3595.000000	95.237729 
3594.000000	95.233707 
3593.000000	95.238929 
3592.000000	95.251932 
3591.000000	95.264158 
3590.000000	95.267352 
3589.000000	95.259017 
3588.000000	95.240654 
3587.000000	95.212542 
3586.000000	95.186212 
3585.000000	95.177826 
3584.000000	95.183807 
3583.000000	95.191790 
3582.000000	95.194345 
3581.000000	95.187911 
3580.000000	95.174141 
3579.000000	95.157137 
3578.000000	95.141154 
3577.000000	95.129408 
3576.000000	95.124071 
3575.000000	95.125037 
3574.000000	95.128814 
3573.000000	95.131722 
3572.000000	95.131163 
3571.000000	95.125376 
3570.000000	95.114388 
3569.000000	95.105325 
3568.000000	95.103899 
3567.000000	95.094518 
3566.000000	95.061692 
3565.000000	95.026772 
3564.000000	95.013877 
3563.000000	95.019864 
3562.000000	95.029716 
3561.000000	95.033617 
3560.000000	95.029436 
3559.000000	95.021848 
3558.000000	95.015641 
3557.000000	95.012183 
3556.000000	95.010133 
3555.000000	95.007337 
3554.000000	95.000784 
3553.000000	94.989568 
3552.000000	94.977909 
3551.000000	94.972939 
3550.000000	94.978288 
3549.000000	94.991778 
3548.000000	95.007986 
3547.000000	95.019280 
3546.000000	95.014937 
3545.000000	94.990782 
3544.000000	94.958737 
3543.000000	94.934150 
3542.000000	94.921880 
3541.000000	94.918670 
3540.000000	94.918648 
3539.000000	94.917985 
3538.000000	94.914894 
3537.000000	94.908156 
3536.000000	94.898483 
3535.000000	94.888310 
3534.000000	94.881630 
3533.000000	94.880977 
3532.000000	94.886032 
3531.000000	94.893190 
3530.000000	94.899185 
3529.000000	94.903554 
3528.000000	94.908601 
3527.000000	94.915143 
3526.000000	94.920626 
3525.000000	94.920701 
3524.000000	94.911746 
3523.000000	94.893334 
3522.000000	94.869955 
3521.000000	94.849427 
3520.000000	94.836649 
3519.000000	94.830867 
3518.000000	94.829041 
3517.000000	94.828289 
3516.000000	94.827372 
3515.000000	94.825669 
3514.000000	94.823323 
3513.000000	94.821395 
3512.000000	94.821163 
3511.000000	94.821609 
3510.000000	94.820067 
3509.000000	94.814960 
3508.000000	94.808784 
3507.000000	94.805512 
3506.000000	94.806659 
3505.000000	94.812174 
3504.000000	94.819649 
3503.000000	94.821761 
3502.000000	94.813463 
3501.000000	94.798882 
3500.000000	94.785543 
3499.000000	94.776913 
3498.000000	94.771934 
3497.000000	94.768130 
3496.000000	94.764073 
3495.000000	94.759140 
3494.000000	94.753439 
3493.000000	94.748087 
3492.000000	94.744156 
3491.000000	94.741654 
3490.000000	94.740085 
3489.000000	94.738962 
3488.000000	94.737638 
3487.000000	94.734943 
3486.000000	94.729867 
3485.000000	94.723345 
3484.000000	94.718497 
3483.000000	94.717421 
3482.000000	94.718754 
3481.000000	94.718277 
3480.000000	94.713054 
3479.000000	94.703864 
3478.000000	94.693504 
3477.000000	94.684620 
3476.000000	94.678583 
3475.000000	94.674769 
3474.000000	94.671428 
3473.000000	94.668125 
3472.000000	94.666072 
3471.000000	94.666347 
3470.000000	94.668577 
3469.000000	94.671104 
3468.000000	94.672158 
3467.000000	94.671071 
3466.000000	94.667741 
3465.000000	94.662098 
3464.000000	94.654793 
3463.000000	94.647809 
3462.000000	94.643616 
3461.000000	94.642339 
3460.000000	94.640516 
3459.000000	94.633973 
3458.000000	94.622121 
3457.000000	94.608876 
3456.000000	94.599009 
3455.000000	94.593293 
3454.000000	94.589548 
3453.000000	94.586286 
3452.000000	94.584942 
3451.000000	94.586453 
3450.000000	94.588903 
3449.000000	94.589933 
3448.000000	94.589302 
3447.000000	94.588155 
3446.000000	94.587609 
3445.000000	94.588037 
3444.000000	94.588528 
3443.000000	94.587718 
3442.000000	94.585118 
3441.000000	94.582669 
3440.000000	94.583734 
3439.000000	94.589114 
3438.000000	94.595755 
3437.000000	94.600013 
3436.000000	94.600984 
3435.000000	94.599590 
3434.000000	94.597206 
3433.000000	94.595150 
3432.000000	94.595212 
3431.000000	94.597505 
3430.000000	94.599792 
3429.000000	94.600475 
3428.000000	94.600526 
3427.000000	94.601761 
3426.000000	94.604629 
3425.000000	94.609192 
3424.000000	94.615882 
3423.000000	94.623757 
3422.000000	94.629653 
3421.000000	94.631057 
3420.000000	94.628876 
3419.000000	94.625544 
3418.000000	94.622532 
3417.000000	94.620912 
3416.000000	94.622357 
3415.000000	94.627518 
3414.000000	94.634437 
3413.000000	94.640355 
3412.000000	94.644113 
3411.000000	94.645979 
3410.000000	94.646538 
3409.000000	94.646970 
3408.000000	94.648698 
3407.000000	94.651813 
3406.000000	94.654982 
3405.000000	94.657941 
3404.000000	94.662356 
3403.000000	94.669110 
3402.000000	94.676898 
3401.000000	94.683921 
3400.000000	94.689979 
3399.000000	94.695546 
3398.000000	94.700471 
3397.000000	94.704434 
3396.000000	94.707831 
3395.000000	94.711198 
3394.000000	94.714154 
3393.000000	94.715947 
3392.000000	94.716625 
3391.000000	94.717099 
3390.000000	94.718294 
3389.000000	94.720846 
3388.000000	94.724919 
3387.000000	94.730104 
3386.000000	94.735843 
3385.000000	94.741803 
3384.000000	94.747622 
3383.000000	94.752278 
3382.000000	94.755088 
3381.000000	94.756680 
3380.000000	94.758707 
3379.000000	94.762135 
3378.000000	94.766617 
3377.000000	94.771257 
3376.000000	94.775240 
3375.000000	94.778128 
3374.000000	94.780125 
3373.000000	94.782299 
3372.000000	94.785666 
3371.000000	94.790174 
3370.000000	94.794877 
3369.000000	94.799440 
3368.000000	94.804567 
3367.000000	94.810702 
3366.000000	94.816843 
3365.000000	94.821314 
3364.000000	94.823588 
3363.000000	94.825020 
3362.000000	94.827721 
3361.000000	94.832822 
3360.000000	94.839638 
3359.000000	94.846312 
3358.000000	94.851457 
3357.000000	94.855277 
3356.000000	94.859079 
3355.000000	94.863924 
3354.000000	94.869906 
3353.000000	94.876618 
3352.000000	94.883592 
3351.000000	94.890291 
3350.000000	94.896065 
3349.000000	94.900654 
3348.000000	94.904247 
3347.000000	94.907152 
3346.000000	94.909810 
3345.000000	94.912903 
3344.000000	94.917415 
3343.000000	94.923823 
3342.000000	94.931616 
3341.000000	94.939531 
3340.000000	94.946394 
3339.000000	94.951746 
3338.000000	94.955752 
3337.000000	94.958697 
3336.000000	94.960760 
3335.000000	94.962248 
3334.000000	94.963734 
3333.000000	94.965728 
3332.000000	94.968447 
3331.000000	94.972066 
3330.000000	94.976983 
3329.000000	94.983309 
3328.000000	94.990040 
3327.000000	94.995344 
3326.000000	94.998153 
3325.000000	94.998911 
3324.000000	94.998960 
3323.000000	94.999524 
3322.000000	95.001672 
3321.000000	95.006151 
3320.000000	95.012708 
3319.000000	95.020115 
3318.000000	95.027392 
3317.000000	95.034271 
3316.000000	95.040480 
3315.000000	95.045436 
3314.000000	95.049327 
3313.000000	95.053516 
3312.000000	95.058970 
3311.000000	95.064878 
3310.000000	95.069690 
3309.000000	95.072890 
3308.000000	95.074903 
3307.000000	95.075848 
3306.000000	95.075427 
3305.000000	95.073913 
3304.000000	95.072251 
3303.000000	95.071319 
3302.000000	95.071874 
3301.000000	95.074736 
3300.000000	95.080154 
3299.000000	95.086906 
3298.000000	95.093328 
3297.000000	95.098879 
3296.000000	95.104284 
3295.000000	95.110069 
3294.000000	95.115906 
3293.000000	95.121368 
3292.000000	95.126437 
3291.000000	95.131088 
3290.000000	95.134987 
3289.000000	95.137688 
3288.000000	95.138915 
3287.000000	95.138913 
3286.000000	95.138878 
3285.000000	95.140473 
3284.000000	95.144131 
3283.000000	95.148377 
3282.000000	95.151351 
3281.000000	95.152937 
3280.000000	95.154566 
3279.000000	95.157551 
3278.000000	95.162315 
3277.000000	95.168445 
3276.000000	95.174816 
3275.000000	95.179992 
3274.000000	95.183471 
3273.000000	95.186310 
3272.000000	95.189817 
3271.000000	95.193884 
3270.000000	95.197529 
3269.000000	95.200518 
3268.000000	95.203562 
3267.000000	95.207124 
3266.000000	95.210836 
3265.000000	95.213902 
3264.000000	95.215666 
3263.000000	95.216356 
3262.000000	95.217196 
3261.000000	95.219595 
3260.000000	95.223407 
3259.000000	95.227056 
3258.000000	95.229504 
3257.000000	95.231368 
3256.000000	95.233718 
3255.000000	95.236705 
3254.000000	95.240164 
3253.000000	95.244390 
3252.000000	95.249611 
3251.000000	95.254899 
3250.000000	95.259172 
3249.000000	95.262736 
3248.000000	95.266830 
3247.000000	95.271827 
3246.000000	95.276598 
3245.000000	95.279673 
3244.000000	95.280808 
3243.000000	95.281335 
3242.000000	95.283006 
3241.000000	95.286601 
3240.000000	95.291514 
3239.000000	95.296842 
3238.000000	95.302308 
3237.000000	95.307972 
3236.000000	95.313378 
3235.000000	95.317859 
3234.000000	95.321581 
3233.000000	95.325300 
3232.000000	95.329553 
3231.000000	95.334347 
3230.000000	95.339510 
3229.000000	95.344321 
3228.000000	95.347057 
3227.000000	95.346571 
3226.000000	95.344488 
3225.000000	95.344364 
3224.000000	95.348303 
3223.000000	95.355305 
3222.000000	95.362957 
3221.000000	95.369634 
3220.000000	95.374681 
3219.000000	95.378289 
3218.000000	95.381508 
3217.000000	95.385598 
3216.000000	95.390653 
3215.000000	95.395798 
3214.000000	95.400731 
3213.000000	95.406038 
3212.000000	95.411738 
3211.000000	95.416530 
3210.000000	95.419306 
3209.000000	95.420799 
3208.000000	95.422738 
3207.000000	95.425937 
3206.000000	95.429805 
3205.000000	95.433565 
3204.000000	95.437085 
3203.000000	95.440986 
3202.000000	95.446010 
3201.000000	95.452227 
3200.000000	95.458212 
3199.000000	95.461988 
3198.000000	95.463098 
3197.000000	95.463571 
3196.000000	95.465978 
3195.000000	95.470777 
3194.000000	95.476189 
3193.000000	95.480443 
3192.000000	95.483492 
3191.000000	95.486414 
3190.000000	95.490097 
3189.000000	95.494862 
3188.000000	95.500890 
3187.000000	95.508263 
3186.000000	95.515825 
3185.000000	95.521297 
3184.000000	95.523089 
3183.000000	95.522433 
3182.000000	95.522524 
3181.000000	95.525737 
3180.000000	95.532092 
3179.000000	95.540085 
3178.000000	95.548030 
3177.000000	95.554552 
3176.000000	95.558799 
3175.000000	95.561053 
3174.000000	95.562863 
3173.000000	95.565793 
3172.000000	95.570284 
3171.000000	95.575837 
3170.000000	95.581779 
3169.000000	95.587190 
3168.000000	95.590879 
3167.000000	95.592533 
3166.000000	95.593412 
3165.000000	95.595394 
3164.000000	95.599199 
3163.000000	95.604220 
3162.000000	95.609532 
3161.000000	95.614513 
3160.000000	95.618726 
3159.000000	95.621933 
