PE IR                   SPECTRUM    ASCII       PEDS        1.60        
  -1
FR220766.ASC
22/05/31
14:36:53.00
22/05/31
14:36:53.00
Administrator
Primer amarelo removido com auxilio de um estilete na superficie da Amostra denominada A 2 - Porta de passageiros - sem nenhum tratamento - IR/UATR 80N - Vitor
550.000000
20









FRONTIER FT-IR/NIR,CPU32 MAIN 00.09.1072 09-JANUARY-2014 12:55:01
MIR TGS
MIR
OPTKBR
100262
0.200000

4.000000
FORTE
RAZ„O
ESPECTRO
MAGNITUDE
UNIVERSAL ATR
DUPLO

COMBINADO


0


#HDR
-1
-1
#GR
CM-1
%T
0.00002384185791015625
0.0
4000.000000
-1.000000
3451
8
98.689378
68.657178
#DATA
4000.000000	97.793685 
3999.000000	97.793046 
3998.000000	97.793126 
3997.000000	97.793765 
3996.000000	97.794987 
3995.000000	97.796921 
3994.000000	97.799495 
3993.000000	97.802265 
3992.000000	97.804588 
3991.000000	97.805787 
3990.000000	97.805763 
3989.000000	97.805502 
3988.000000	97.806253 
3987.000000	97.808431 
3986.000000	97.810968 
3985.000000	97.811965 
3984.000000	97.810316 
3983.000000	97.806502 
3982.000000	97.802477 
3981.000000	97.800294 
3980.000000	97.800771 
3979.000000	97.803303 
3978.000000	97.806401 
3977.000000	97.808629 
3976.000000	97.809323 
3975.000000	97.808878 
3974.000000	97.808366 
3973.000000	97.808698 
3972.000000	97.810032 
3971.000000	97.811835 
3970.000000	97.813377 
3969.000000	97.814369 
3968.000000	97.815092 
3967.000000	97.816170 
3966.000000	97.818444 
3965.000000	97.822656 
3964.000000	97.828494 
3963.000000	97.834320 
3962.000000	97.837756 
3961.000000	97.837531 
3960.000000	97.835016 
3959.000000	97.832426 
3958.000000	97.830705 
3957.000000	97.829002 
3956.000000	97.826026 
3955.000000	97.821846 
3954.000000	97.817960 
3953.000000	97.816471 
3952.000000	97.819018 
3951.000000	97.825446 
3950.000000	97.833634 
3949.000000	97.840090 
3948.000000	97.841927 
3947.000000	97.838989 
3946.000000	97.833368 
3945.000000	97.828384 
3944.000000	97.826743 
3943.000000	97.829269 
3942.000000	97.834381 
3941.000000	97.839069 
3940.000000	97.841602 
3939.000000	97.841768 
3938.000000	97.840705 
3937.000000	97.840453 
3936.000000	97.842185 
3935.000000	97.846079 
3934.000000	97.851104 
3933.000000	97.855164 
3932.000000	97.855896 
3931.000000	97.851950 
3930.000000	97.845007 
3929.000000	97.837814 
3928.000000	97.831963 
3927.000000	97.828266 
3926.000000	97.827598 
3925.000000	97.829224 
3924.000000	97.830904 
3923.000000	97.831704 
3922.000000	97.831984 
3921.000000	97.832988 
3920.000000	97.835760 
3919.000000	97.840569 
3918.000000	97.846564 
3917.000000	97.850553 
3916.000000	97.850418 
3915.000000	97.847052 
3914.000000	97.842186 
3913.000000	97.837933 
3912.000000	97.835598 
3911.000000	97.835508 
3910.000000	97.836489 
3909.000000	97.836452 
3908.000000	97.834706 
3907.000000	97.833485 
3906.000000	97.836602 
3905.000000	97.846530 
3904.000000	97.859908 
3903.000000	97.869066 
3902.000000	97.869150 
3901.000000	97.862177 
3900.000000	97.854062 
3899.000000	97.849810 
3898.000000	97.850780 
3897.000000	97.854249 
3896.000000	97.857244 
3895.000000	97.859267 
3894.000000	97.860877 
3893.000000	97.863585 
3892.000000	97.866461 
3891.000000	97.867826 
3890.000000	97.868183 
3889.000000	97.867098 
3888.000000	97.865468 
3887.000000	97.864356 
3886.000000	97.863997 
3885.000000	97.863316 
3884.000000	97.859728 
3883.000000	97.852320 
3882.000000	97.842660 
3881.000000	97.835234 
3880.000000	97.834996 
3879.000000	97.841478 
3878.000000	97.849286 
3877.000000	97.851806 
3876.000000	97.848164 
3875.000000	97.843063 
3874.000000	97.840833 
3873.000000	97.843757 
3872.000000	97.851628 
3871.000000	97.862324 
3870.000000	97.872467 
3869.000000	97.879009 
3868.000000	97.883421 
3867.000000	97.887724 
3866.000000	97.891569 
3865.000000	97.893985 
3864.000000	97.893362 
3863.000000	97.890869 
3862.000000	97.889626 
3861.000000	97.890494 
3860.000000	97.891459 
3859.000000	97.890946 
3858.000000	97.889289 
3857.000000	97.887835 
3856.000000	97.888118 
3855.000000	97.889774 
3854.000000	97.892762 
3853.000000	97.895355 
3852.000000	97.892512 
3851.000000	97.889543 
3850.000000	97.889709 
3849.000000	97.891789 
3848.000000	97.892337 
3847.000000	97.890452 
3846.000000	97.887187 
3845.000000	97.883839 
3844.000000	97.881991 
3843.000000	97.880822 
3842.000000	97.878719 
3841.000000	97.875778 
3840.000000	97.871770 
3839.000000	97.866698 
3838.000000	97.862059 
3837.000000	97.860520 
3836.000000	97.863376 
3835.000000	97.867927 
3834.000000	97.871933 
3833.000000	97.875692 
3832.000000	97.880164 
3831.000000	97.885809 
3830.000000	97.891503 
3829.000000	97.895409 
3828.000000	97.896988 
3827.000000	97.897280 
3826.000000	97.897084 
3825.000000	97.896047 
3824.000000	97.893480 
3823.000000	97.888253 
3822.000000	97.882709 
3821.000000	97.880412 
3820.000000	97.880391 
3819.000000	97.880597 
3818.000000	97.879428 
3817.000000	97.878097 
3816.000000	97.878264 
3815.000000	97.881269 
3814.000000	97.887729 
3813.000000	97.896046 
3812.000000	97.903552 
3811.000000	97.909474 
3810.000000	97.914633 
3809.000000	97.920402 
3808.000000	97.925042 
3807.000000	97.924972 
3806.000000	97.917705 
3805.000000	97.904954 
3804.000000	97.891828 
3803.000000	97.882560 
3802.000000	97.878566 
3801.000000	97.877174 
3800.000000	97.877019 
3799.000000	97.879494 
3798.000000	97.884250 
3797.000000	97.890474 
3796.000000	97.897560 
3795.000000	97.903506 
3794.000000	97.906858 
3793.000000	97.907145 
3792.000000	97.905889 
3791.000000	97.905235 
3790.000000	97.906283 
3789.000000	97.908855 
3788.000000	97.911288 
3787.000000	97.911981 
3786.000000	97.910412 
3785.000000	97.907040 
3784.000000	97.902918 
3783.000000	97.899547 
3782.000000	97.897106 
3781.000000	97.896226 
3780.000000	97.898983 
3779.000000	97.905985 
3778.000000	97.914718 
3777.000000	97.921168 
3776.000000	97.923218 
3775.000000	97.921225 
3774.000000	97.917588 
3773.000000	97.915747 
3772.000000	97.917495 
3771.000000	97.922054 
3770.000000	97.925755 
3769.000000	97.926002 
3768.000000	97.923381 
3767.000000	97.921604 
3766.000000	97.923106 
3765.000000	97.926806 
3764.000000	97.929696 
3763.000000	97.929381 
3762.000000	97.925479 
3761.000000	97.918966 
3760.000000	97.911973 
3759.000000	97.907487 
3758.000000	97.907140 
3757.000000	97.911609 
3756.000000	97.919123 
3755.000000	97.928138 
3754.000000	97.938814 
3753.000000	97.954544 
3752.000000	97.977223 
3751.000000	98.000204 
3750.000000	98.010400 
3749.000000	98.004188 
3748.000000	97.988023 
3747.000000	97.968465 
3746.000000	97.949594 
3745.000000	97.933617 
3744.000000	97.925381 
3743.000000	97.926526 
3742.000000	97.933452 
3741.000000	97.942464 
3740.000000	97.950446 
3739.000000	97.954247 
3738.000000	97.951523 
3737.000000	97.942777 
3736.000000	97.933192 
3735.000000	97.928153 
3734.000000	97.932023 
3733.000000	97.944393 
3732.000000	97.955896 
3731.000000	97.959470 
3730.000000	97.957129 
3729.000000	97.954944 
3728.000000	97.956821 
3727.000000	97.960840 
3726.000000	97.961581 
3725.000000	97.954755 
3724.000000	97.941440 
3723.000000	97.926577 
3722.000000	97.915393 
3721.000000	97.910237 
3720.000000	97.909677 
3719.000000	97.911514 
3718.000000	97.914344 
3717.000000	97.917039 
3716.000000	97.918688 
3715.000000	97.919054 
3714.000000	97.918048 
3713.000000	97.915585 
3712.000000	97.909587 
3711.000000	97.898014 
3710.000000	97.884932 
3709.000000	97.878500 
3708.000000	97.879254 
3707.000000	97.880417 
3706.000000	97.876140 
3705.000000	97.863722 
3704.000000	97.843608 
3703.000000	97.819505 
3702.000000	97.796984 
3701.000000	97.780931 
3700.000000	97.772181 
3699.000000	97.769120 
3698.000000	97.770172 
3697.000000	97.774478 
3696.000000	97.780998 
3695.000000	97.787853 
3694.000000	97.792208 
3693.000000	97.791785 
3692.000000	97.787990 
3691.000000	97.785805 
3690.000000	97.788468 
3689.000000	97.792740 
3688.000000	97.794074 
3687.000000	97.790971 
3686.000000	97.783930 
3685.000000	97.773271 
3684.000000	97.757471 
3683.000000	97.732710 
3682.000000	97.693527 
3681.000000	97.635540 
3680.000000	97.558940 
3679.000000	97.467586 
3678.000000	97.362482 
3677.000000	97.238330 
3676.000000	97.101791 
3675.000000	96.996451 
3674.000000	96.966958 
3673.000000	97.003834 
3672.000000	97.076846 
3671.000000	97.165097 
3670.000000	97.248548 
3669.000000	97.309096 
3668.000000	97.346772 
3667.000000	97.370952 
3666.000000	97.386822 
3665.000000	97.396154 
3664.000000	97.400333 
3663.000000	97.400528 
3662.000000	97.397716 
3661.000000	97.393660 
3660.000000	97.391131 
3659.000000	97.391929 
3658.000000	97.394802 
3657.000000	97.395003 
3656.000000	97.387551 
3655.000000	97.372166 
3654.000000	97.352603 
3653.000000	97.332152 
3652.000000	97.313887 
3651.000000	97.303232 
3650.000000	97.302563 
3649.000000	97.296459 
3648.000000	97.273727 
3647.000000	97.248777 
3646.000000	97.236337 
3645.000000	97.235761 
3644.000000	97.238951 
3643.000000	97.238635 
3642.000000	97.230451 
3641.000000	97.214851 
3640.000000	97.196308 
3639.000000	97.180000 
3638.000000	97.168321 
3637.000000	97.159800 
3636.000000	97.151049 
3635.000000	97.139957 
3634.000000	97.128019 
3633.000000	97.119233 
3632.000000	97.116211 
3631.000000	97.116431 
3630.000000	97.113925 
3629.000000	97.102940 
3628.000000	97.085886 
3627.000000	97.073755 
3626.000000	97.069543 
3625.000000	97.070635 
3624.000000	97.074975 
3623.000000	97.081842 
3622.000000	97.089691 
3621.000000	97.094860 
3620.000000	97.093549 
3619.000000	97.087315 
3618.000000	97.082872 
3617.000000	97.085490 
3616.000000	97.095439 
3615.000000	97.109765 
3614.000000	97.125175 
3613.000000	97.140019 
3612.000000	97.154583 
3611.000000	97.167896 
3610.000000	97.174920 
3609.000000	97.170442 
3608.000000	97.155837 
3607.000000	97.141004 
3606.000000	97.135779 
3605.000000	97.141184 
3604.000000	97.151525 
3603.000000	97.160406 
3602.000000	97.163329 
3601.000000	97.157582 
3600.000000	97.144066 
3599.000000	97.128301 
3598.000000	97.115953 
3597.000000	97.108221 
3596.000000	97.103657 
3595.000000	97.099827 
3594.000000	97.095401 
3593.000000	97.091086 
3592.000000	97.087820 
3591.000000	97.084896 
3590.000000	97.080685 
3589.000000	97.073125 
3588.000000	97.060210 
3587.000000	97.041515 
3586.000000	97.022939 
3585.000000	97.011920 
3584.000000	97.007640 
3583.000000	97.004943 
3582.000000	96.999776 
3581.000000	96.989787 
3580.000000	96.975516 
3579.000000	96.959936 
3578.000000	96.946334 
3577.000000	96.936219 
3576.000000	96.929287 
3575.000000	96.924487 
3574.000000	96.920746 
3573.000000	96.917701 
3572.000000	96.915256 
3571.000000	96.912723 
3570.000000	96.908717 
3569.000000	96.902289 
3568.000000	96.891685 
3567.000000	96.872254 
3566.000000	96.844626 
3565.000000	96.820781 
3564.000000	96.808997 
3563.000000	96.805970 
3562.000000	96.804752 
3561.000000	96.801688 
3560.000000	96.796846 
3559.000000	96.792096 
3558.000000	96.787898 
3557.000000	96.782664 
3556.000000	96.774834 
3555.000000	96.764426 
3554.000000	96.752210 
3553.000000	96.739315 
3552.000000	96.728073 
3551.000000	96.721566 
3550.000000	96.721052 
3549.000000	96.724343 
3548.000000	96.726885 
3547.000000	96.723816 
3546.000000	96.711576 
3545.000000	96.691247 
3544.000000	96.669964 
3543.000000	96.654703 
3542.000000	96.646917 
3541.000000	96.643936 
3540.000000	96.642069 
3539.000000	96.638727 
3538.000000	96.632251 
3537.000000	96.621694 
3536.000000	96.608124 
3535.000000	96.594341 
3534.000000	96.582986 
3533.000000	96.574718 
3532.000000	96.568779 
3531.000000	96.564080 
3530.000000	96.559807 
3529.000000	96.555260 
3528.000000	96.550201 
3527.000000	96.544565 
3526.000000	96.537640 
3525.000000	96.527855 
3524.000000	96.514246 
3523.000000	96.498156 
3522.000000	96.482747 
3521.000000	96.470462 
3520.000000	96.461073 
3519.000000	96.452627 
3518.000000	96.443617 
3517.000000	96.433541 
3516.000000	96.422700 
3515.000000	96.411488 
3514.000000	96.400360 
3513.000000	96.390064 
3512.000000	96.381391 
3511.000000	96.374041 
3510.000000	96.366458 
3509.000000	96.357010 
3508.000000	96.345919 
3507.000000	96.334933 
3506.000000	96.325177 
3505.000000	96.316534 
3504.000000	96.307920 
3503.000000	96.297544 
3502.000000	96.284861 
3501.000000	96.271399 
3500.000000	96.258600 
3499.000000	96.246477 
3498.000000	96.234350 
3497.000000	96.221896 
3496.000000	96.209475 
3495.000000	96.197475 
3494.000000	96.185929 
3493.000000	96.174839 
3492.000000	96.164290 
3491.000000	96.154184 
3490.000000	96.144343 
3489.000000	96.134938 
3488.000000	96.126497 
3487.000000	96.118979 
3486.000000	96.111056 
3485.000000	96.101244 
3484.000000	96.089782 
3483.000000	96.078396 
3482.000000	96.068357 
3481.000000	96.059112 
3480.000000	96.049376 
3479.000000	96.038751 
3478.000000	96.027648 
3477.000000	96.016494 
3476.000000	96.005353 
3475.000000	95.993782 
3474.000000	95.981062 
3473.000000	95.967177 
3472.000000	95.953305 
3471.000000	95.940931 
3470.000000	95.930448 
3469.000000	95.921003 
3468.000000	95.911820 
3467.000000	95.903159 
3466.000000	95.895286 
3465.000000	95.887247 
3464.000000	95.877547 
3463.000000	95.865855 
3462.000000	95.853545 
3461.000000	95.842141 
3460.000000	95.831715 
3459.000000	95.821117 
3458.000000	95.809555 
3457.000000	95.797732 
3456.000000	95.787242 
3455.000000	95.778684 
3454.000000	95.771231 
3453.000000	95.763711 
3452.000000	95.755992 
3451.000000	95.748223 
3450.000000	95.739377 
3449.000000	95.727692 
3448.000000	95.712797 
3447.000000	95.697086 
3446.000000	95.684228 
3445.000000	95.675648 
3444.000000	95.669027 
3443.000000	95.660762 
3442.000000	95.649349 
3441.000000	95.636506 
3440.000000	95.625023 
3439.000000	95.615838 
3438.000000	95.607849 
3437.000000	95.599919 
3436.000000	95.591893 
3435.000000	95.583552 
3434.000000	95.574238 
3433.000000	95.563731 
3432.000000	95.552940 
3431.000000	95.542524 
3430.000000	95.531788 
3429.000000	95.520046 
3428.000000	95.508305 
3427.000000	95.498614 
3426.000000	95.491953 
3425.000000	95.487561 
3424.000000	95.483715 
3423.000000	95.478421 
3422.000000	95.470009 
3421.000000	95.458278 
3420.000000	95.444935 
3419.000000	95.431887 
3418.000000	95.419659 
3417.000000	95.408195 
3416.000000	95.398373 
3415.000000	95.391417 
3414.000000	95.386988 
3413.000000	95.383009 
3412.000000	95.377475 
3411.000000	95.369868 
3410.000000	95.360985 
3409.000000	95.352134 
3408.000000	95.344318 
3407.000000	95.337647 
3406.000000	95.331396 
3405.000000	95.324964 
3404.000000	95.318467 
3403.000000	95.312171 
3402.000000	95.306203 
3401.000000	95.301048 
3400.000000	95.297625 
3399.000000	95.295965 
3398.000000	95.294490 
3397.000000	95.291434 
3396.000000	95.286662 
3395.000000	95.281315 
3394.000000	95.275999 
3393.000000	95.270435 
3392.000000	95.264637 
3391.000000	95.259379 
3390.000000	95.255294 
3389.000000	95.252298 
3388.000000	95.249871 
3387.000000	95.247365 
3386.000000	95.244160 
3385.000000	95.240152 
3384.000000	95.236105 
3383.000000	95.232815 
3382.000000	95.230132 
3381.000000	95.227192 
3380.000000	95.223682 
3379.000000	95.220167 
3378.000000	95.217266 
3377.000000	95.215060 
3376.000000	95.213357 
3375.000000	95.211954 
3374.000000	95.210313 
3373.000000	95.207520 
3372.000000	95.202925 
3371.000000	95.196878 
3370.000000	95.190740 
3369.000000	95.186221 
3368.000000	95.184261 
3367.000000	95.184157 
3366.000000	95.183962 
3365.000000	95.182187 
3364.000000	95.179053 
3363.000000	95.175908 
3362.000000	95.173789 
3361.000000	95.172996 
3360.000000	95.173499 
3359.000000	95.174901 
3358.000000	95.176244 
3357.000000	95.176700 
3356.000000	95.176418 
3355.000000	95.176050 
3354.000000	95.175585 
3353.000000	95.174477 
3352.000000	95.172753 
3351.000000	95.171168 
3350.000000	95.170210 
3349.000000	95.169861 
3348.000000	95.170319 
3347.000000	95.172015 
3346.000000	95.174654 
3345.000000	95.177015 
3344.000000	95.178287 
3343.000000	95.178831 
3342.000000	95.179405 
3341.000000	95.180223 
3340.000000	95.181098 
3339.000000	95.181877 
3338.000000	95.182335 
3337.000000	95.182274 
3336.000000	95.182154 
3335.000000	95.182890 
3334.000000	95.184518 
3333.000000	95.185845 
3332.000000	95.186183 
3331.000000	95.186695 
3330.000000	95.189052 
3329.000000	95.193043 
3328.000000	95.196513 
3327.000000	95.197725 
3326.000000	95.197005 
3325.000000	95.195826 
3324.000000	95.195278 
3323.000000	95.195882 
3322.000000	95.198256 
3321.000000	95.202956 
3320.000000	95.209666 
3319.000000	95.217067 
3318.000000	95.223640 
3317.000000	95.228396 
3316.000000	95.231162 
3315.000000	95.232649 
3314.000000	95.234225 
3313.000000	95.236937 
3312.000000	95.240466 
3311.000000	95.243611 
3310.000000	95.246154 
3309.000000	95.249550 
3308.000000	95.255033 
3307.000000	95.261478 
3306.000000	95.266202 
3305.000000	95.267974 
3304.000000	95.268445 
3303.000000	95.270431 
3302.000000	95.275434 
3301.000000	95.282820 
3300.000000	95.290583 
3299.000000	95.296485 
3298.000000	95.299516 
3297.000000	95.300951 
3296.000000	95.303642 
3295.000000	95.309531 
3294.000000	95.318046 
3293.000000	95.327206 
3292.000000	95.335649 
3291.000000	95.343004 
3290.000000	95.348943 
3289.000000	95.352999 
3288.000000	95.355438 
3287.000000	95.357544 
3286.000000	95.360735 
3285.000000	95.365597 
3284.000000	95.371703 
3283.000000	95.378026 
3282.000000	95.383598 
3281.000000	95.388321 
3280.000000	95.393131 
3279.000000	95.399125 
3278.000000	95.406505 
3277.000000	95.414378 
3276.000000	95.421542 
3275.000000	95.427413 
3274.000000	95.432570 
3273.000000	95.438492 
3272.000000	95.446299 
3271.000000	95.455383 
3270.000000	95.463827 
3269.000000	95.470540 
3268.000000	95.476472 
3267.000000	95.483146 
3266.000000	95.490485 
3265.000000	95.496998 
3264.000000	95.502026 
3263.000000	95.506804 
3262.000000	95.512793 
3261.000000	95.519905 
3260.000000	95.526829 
3259.000000	95.532840 
3258.000000	95.538601 
3257.000000	95.545180 
3256.000000	95.552863 
3255.000000	95.561224 
3254.000000	95.570107 
3253.000000	95.579880 
3252.000000	95.590626 
3251.000000	95.601340 
3250.000000	95.610694 
3249.000000	95.618546 
3248.000000	95.626036 
3247.000000	95.633953 
3246.000000	95.641577 
3245.000000	95.647773 
3244.000000	95.652941 
3243.000000	95.658973 
3242.000000	95.667126 
3241.000000	95.676800 
3240.000000	95.686576 
3239.000000	95.695885 
3238.000000	95.705157 
3237.000000	95.714777 
3236.000000	95.724429 
3235.000000	95.733461 
3234.000000	95.741612 
3233.000000	95.749265 
3232.000000	95.757243 
3231.000000	95.766015 
3230.000000	95.774888 
3229.000000	95.782179 
3228.000000	95.786646 
3227.000000	95.789002 
3226.000000	95.791721 
3225.000000	95.797068 
3224.000000	95.805409 
3223.000000	95.815422 
3222.000000	95.825536 
3221.000000	95.835001 
3220.000000	95.843832 
3219.000000	95.852483 
3218.000000	95.861516 
3217.000000	95.871064 
3216.000000	95.880281 
3215.000000	95.887893 
3214.000000	95.893747 
3213.000000	95.899420 
3212.000000	95.906631 
3211.000000	95.915231 
3210.000000	95.923539 
3209.000000	95.930655 
3208.000000	95.937436 
3207.000000	95.944908 
3206.000000	95.952665 
3205.000000	95.959750 
3204.000000	95.966432 
3203.000000	95.974165 
3202.000000	95.983699 
3201.000000	95.994062 
3200.000000	96.003399 
3199.000000	96.010542 
3198.000000	96.015843 
3197.000000	96.021089 
3196.000000	96.028387 
3195.000000	96.038455 
3194.000000	96.049893 
3193.000000	96.060479 
3192.000000	96.069178 
3191.000000	96.076570 
3190.000000	96.083745 
3189.000000	96.091531 
3188.000000	96.100626 
3187.000000	96.111305 
3186.000000	96.122337 
3185.000000	96.131404 
3184.000000	96.137512 
3183.000000	96.142731 
3182.000000	96.150426 
3181.000000	96.161845 
3180.000000	96.175092 
3179.000000	96.187391 
3178.000000	96.197658 
3177.000000	96.206542 
3176.000000	96.214608 
3175.000000	96.221487 
3174.000000	96.227086 
3173.000000	96.232786 
3172.000000	96.240614 
3171.000000	96.251120 
3170.000000	96.262702 
3169.000000	96.273234 
3168.000000	96.281863 
3167.000000	96.288976 
3166.000000	96.295074 
3165.000000	96.300660 
3164.000000	96.306855 
3163.000000	96.315072 
3162.000000	96.325609 
3161.000000	96.337070 
3160.000000	96.347493 
3159.000000	96.355860 
